##TITLE=TEST
##JCAMP-DX=4.24
##DATA TYPE=MASS SPECTRUM
##XUNITS=M/Z
##YUNITS=RELATIVE ABUNDANCE
##FIRSTX=4.0058
##LASTX=34.2505
##FIRSTY=248.7503
##LASTY=9931184
##NPOINTS=10530
##PEAK TABLE=(XY..XY)
4.0058	16811.58
4.00867	837.751
4.01153	103.5574
4.01438	0
4.01725	0
4.02012	0
4.02298	0
4.02585	0
4.02872	0
4.03157	0
4.03443	248.7503
4.0373	744.5069
4.04017	1488.765
4.04303	3737.895
4.04588	5859.374
4.04875	9915.634
4.05162	11989.45
4.05448	16889.14
4.05735	23725.71
4.0602	26755.39
4.06307	30385.82
4.06593	35772.1
4.0688	43102.18
4.07167	47989.98
4.07453	57883.24
4.07738	58073.07
4.08025	60673.68
4.08312	65983.2
4.08598	80852.16
4.08885	87217.54
4.0917	126111.2
4.09457	262762.6
4.09743	716639.8
4.1003	1624417
4.10317	3063307
4.10603	4814877
4.10888	6667735
4.11175	8287426
4.11462	9503900
4.12035	9931184
4.12322	8975296
4.12607	7739824
4.12893	6367899
4.1318	4973586
4.13467	3801942
4.13753	2882940
4.1404	2137410
4.14327	1597999
4.14612	1226917
4.14898	931907.4
4.15185	753743.9
4.15472	623304.4
4.15758	523215.6
4.16045	473243.8
4.1633	432190.7
4.16617	411011.3
4.16903	406242
4.1719	380792.1
4.17477	383140.2
4.17762	391151.3
4.18048	379980.2
4.18335	366287.3
4.18622	347105.6
4.18908	336488.6
4.19195	320316
4.1948	300044.1
4.19767	290922.1
4.20053	262976.3
4.2034	248533.8
4.20627	235000.4
4.20913	221632.4
4.21198	210608.5
4.21485	193742.8
4.21772	174434.8
4.22058	179029.8
4.22345	171055.6
4.22632	159943.9
4.22917	157629.9
4.23203	153745.2
4.2349	154368.6
4.23777	144074.8
4.24063	142889.5
4.2435	144902.8
4.24635	137249.8
4.24922	134345.7
4.25208	131622.8
4.25495	145745.9
4.25782	127718.7
4.26068	122941.5
4.26353	125077.6
4.2664	128154.5
4.26927	121152.9
4.27213	106308.9
4.275	118149.5
4.27787	120841.9
4.28072	115966.1
4.28358	114592.3
4.28645	128875
4.28932	109237.4
4.29218	107839.5
4.29505	108048.9
4.2979	105040.8
4.30077	119537
4.30363	102089.5
4.3065	93701.88
4.30937	104357.6
4.31223	98257.51
4.31508	100324.1
4.31795	99422.73
4.32082	95002.5
4.32368	103458.1
4.32655	98996.73
4.3294	95976.07
4.33227	97044.93
4.33513	98776.02
4.338	95854.16
4.34087	92182.99
4.34373	91384.67
4.34658	92076.73
4.34945	92479.53
4.35232	90351.26
4.35518	93165.45
4.35805	90715.55
4.36092	94265.42
4.36377	91698.12
4.36663	85118.45
4.3695	82561.01
4.37237	83131.04
4.37523	83811.08
4.3781	89594.7
4.38095	82766.88
4.38382	85103.55
4.38668	80397.04
4.38955	84748.28
4.39242	70005.17
4.39528	84203.18
4.39813	79204.81
4.401	78345.34
4.40387	78654.44
4.40673	78296.64
4.4096	81514.57
4.41247	79946.75
4.41532	78436.1
4.41818	78959.55
4.42105	80502.89
4.42392	79425.39
4.42678	81374.18
4.42965	72772.57
4.4325	80856.35
4.43537	75597.06
4.43823	70337.45
4.4411	80574.38
4.44397	80954.3
4.44683	79861.95
4.44968	93153.41
4.45255	98844.22
4.45542	114651.8
4.45828	145389.5
4.46115	152460.8
4.464	172342.3
4.46687	182871.8
4.46973	171208.7
4.4726	171821.2
4.47547	179524.9
4.47833	158410.4
4.48118	149774.6
4.48405	137982.2
4.48692	131655.8
4.48978	127243.7
4.49265	120546.3
4.49552	114667.8
4.49837	105289.4
4.50123	102670.6
4.5041	111633.1
4.50697	99391.09
4.50983	97935.67
4.5127	90210.41
4.51555	95650.34
4.51842	96116.02
4.52128	87414.91
4.52415	85866.39
4.52702	77291.42
4.52988	85866.34
4.53273	90320.63
4.5356	95651.45
4.53847	94827.34
4.54133	97214.16
4.5442	104835.5
4.54707	118577.8
4.54992	117441.1
4.55278	116706.9
4.55565	115149.5
4.55852	127609
4.56138	117467.6
4.56425	111990.2
4.5671	110824.3
4.56997	100224.6
4.57283	98153.55
4.5757	107449.5
4.57857	102470.1
4.58143	102671.5
4.58428	100179.7
4.58715	88655.99
4.59002	93461.41
4.59288	94685.17
4.59575	90506.5
4.5986	92571.98
4.60147	82077.5
4.60433	81991.53
4.6072	83893.27
4.61007	86609.58
4.61293	82563.51
4.61578	84705.24
4.61865	77479.14
4.62152	81978.6
4.62438	79417.64
4.62725	70732.34
4.63012	74701.46
4.63297	78306.33
4.63583	78614.73
4.6387	78086.53
4.64157	73920.33
4.64443	73433.63
4.6473	71409.82
4.65015	73271.56
4.65302	75381.77
4.65588	73839.53
4.65875	70688.23
4.66162	69582.31
4.66448	71106.52
4.66733	72110.64
4.6702	61450.54
4.67307	66610.38
4.67593	71632.38
4.6788	67652.44
4.68167	64591.97
4.68452	66534.57
4.68738	68736.48
4.69025	73862.17
4.69312	70547.88
4.69598	67390.8
4.69885	70257.54
4.7017	69384.63
4.70457	64631.9
4.70743	69470.54
4.7103	67554.75
4.71317	60374.86
4.71603	63919.19
4.71888	68081.05
4.72175	69234.82
4.72462	61521.71
4.72748	63459.21
4.73035	57483.41
4.7332	61399.96
4.73607	60094.57
4.73893	63142.05
4.7418	63770
4.74467	63819.58
4.74753	65517.13
4.75038	58595.52
4.75325	59208.22
4.75612	65409.82
4.75898	63914.22
4.76185	59557.68
4.76472	62383.39
4.76757	62794.04
4.77043	61789.21
4.7733	57412.73
4.77617	59845.54
4.77903	61602.95
4.7819	55457.02
4.78475	55324.52
4.78762	60739.12
4.79048	55606.32
4.79335	58782.99
4.79622	56945.02
4.79908	56313.71
4.80193	61652.12
4.8048	58057.55
4.80767	66918.53
4.81053	62638.22
4.8134	58208.05
4.81627	59411.41
4.81912	57725.84
4.82198	57215.7
4.82485	59194.42
4.82772	61233.04
4.83058	58687.03
4.83345	54303.35
4.8363	52835.01
4.83917	58557.2
4.84203	62232.25
4.8449	56812.45
4.84777	58163.45
4.85063	58586.39
4.85348	57994.05
4.85635	57156.12
4.85922	54727.23
4.86208	56045.01
4.86495	60526.68
4.8678	61414.45
4.87067	63426.67
4.87353	60295.77
4.8764	62839.24
4.87927	67647.6
4.88213	60294.88
4.88498	60284.83
4.88785	57770.16
4.89072	60219.39
4.89358	56187.17
4.89645	58114.64
4.89932	58194.18
4.90217	54670.4
4.90503	64776.22
4.9079	58449.64
4.91077	56149.51
4.91363	53960.65
4.9165	57750.02
4.91935	57044.48
4.92222	60726.59
4.92508	53118.45
4.92795	55836.44
4.93082	55180.54
4.93368	49903.93
4.93653	52544.23
4.9394	55179.9
4.94227	54080.23
4.94513	57039.84
4.948	54536.93
4.95087	53160.45
4.95372	52650.03
4.95658	54013.82
4.95945	54844.78
4.96232	57606.83
4.96518	53441.25
4.96805	52177.79
4.9709	52594.7
4.97377	55822.49
4.97663	51414.03
4.9795	48212.55
4.98237	50541.04
4.98523	47921.95
4.98808	49998.03
4.99095	53171.79
4.99382	51352.63
4.99668	56236.37
4.99955	54503.7
5.00242	54368.13
5.00527	53566.54
5.00813	53096.8
5.011	50987.69
5.01387	55902.47
5.01673	53112.18
5.01958	51295.46
5.02245	49895.83
5.02532	49606.14
5.02818	47884.88
5.03105	49172.45
5.03392	49793.33
5.03677	53091.16
5.03963	50794.19
5.0425	54049.93
5.04537	50448.29
5.04823	55761.04
5.0511	52281.77
5.05395	53173.2
5.05682	50289.56
5.05968	54316.82
5.06255	48318.55
5.06542	51383.87
5.06828	56125.03
5.07113	52967.25
5.074	52236.16
5.07687	55498.5
5.07973	50141.73
5.0826	54148.51
5.08547	51460.13
5.08832	54993.99
5.09118	50592.2
5.09405	51312.68
5.09692	54725.52
5.09978	55587.52
5.10265	53605.36
5.1055	50595.86
5.10837	50922.8
5.11123	52305.54
5.1141	49017.75
5.11697	60233.94
5.11983	57666.29
5.12268	56232.52
5.12555	49396.13
5.12842	54868.09
5.13128	58238.26
5.13415	58958.55
5.13702	58772.77
5.13987	57016.91
5.14273	62645.29
5.1456	60740.82
5.14847	66634.43
5.15133	52134.11
5.15418	55730.59
5.15705	55804.29
5.15992	58921.69
5.16278	57469.47
5.16565	52920.18
5.16852	58678.51
5.17137	57198.19
5.17423	58809.62
5.1771	56164.8
5.17997	54595.78
5.18283	56745.32
5.1857	53295.55
5.18855	50102.16
5.19142	53863.98
5.19428	58031.55
5.19715	53766.68
5.20002	57679.22
5.20288	53439.93
5.20573	49178.21
5.2086	53188.53
5.21147	54794
5.21433	61005.91
5.2172	57479.21
5.22007	46671.79
5.22292	48481
5.22578	53933.81
5.22865	52628.95
5.23152	48615.98
5.23438	50095.29
5.23725	48870.37
5.2401	52100.23
5.24297	51572.56
5.24583	52264.69
5.2487	52360.36
5.25157	58426.82
5.25443	55001.91
5.25728	57534.6
5.26015	64028
5.26302	69624.93
5.26588	75865.81
5.26875	86460.55
5.27162	88770.09
5.27447	87883.95
5.27733	92894.34
5.2802	94390.13
5.28307	101219.7
5.28593	90812.27
5.28878	94916.7
5.29165	95447.83
5.29452	83229.66
5.29738	85794.13
5.30025	79143.83
5.30312	76803.91
5.30597	78887.54
5.30883	80548.17
5.3117	72738.16
5.31457	68424.48
5.31743	72347.02
5.3203	71697.81
5.32315	74356.01
5.32602	63795.43
5.32888	64841.58
5.33175	64573.37
5.33462	65566.55
5.33748	64412.43
5.34033	61146.28
5.3432	63164.61
5.34607	57016.89
5.34893	64552.81
5.3518	59227.59
5.35467	59994.61
5.35752	56116.51
5.36038	57498.22
5.36325	53376.27
5.36612	58650.44
5.36898	52231
5.37185	51806.37
5.3747	53429.65
5.37757	55447.13
5.38043	51646.97
5.3833	55903.3
5.38617	56027.49
5.38903	57982.23
5.39188	56843.13
5.39475	58562.37
5.39762	56108.26
5.40048	56469.66
5.40335	55885.54
5.40622	57855.32
5.40907	62362.94
5.41193	63697.59
5.4148	73743.33
5.41767	82078.23
5.42053	76595.45
5.42338	94770.03
5.42625	91223.86
5.42912	100686.2
5.43198	100987
5.43485	95013.16
5.43772	95138.41
5.44057	94649.53
5.44343	85972.21
5.4463	87254.27
5.44917	80757.84
5.45203	83898.58
5.4549	76817.22
5.45775	71447.22
5.46062	67534.63
5.46348	70253.3
5.46635	64214.29
5.46922	68930.07
5.47208	56691.63
5.47493	66517.45
5.4778	59690.22
5.48067	56134.64
5.48353	72738.23
5.4864	58426.16
5.48927	57041.98
5.49212	57447.43
5.49498	62217.41
5.49785	54705.84
5.50072	50992.59
5.50358	55876.04
5.50645	53911.99
5.5093	65268.49
5.51217	55648.38
5.51503	54694.17
5.5179	56116.75
5.52077	51678.84
5.52363	59324.21
5.52648	57987.76
5.52935	55376.66
5.53222	51225.15
5.53508	52832.51
5.53795	49774.23
5.54082	61570.04
5.54367	59964.24
5.54653	49850.71
5.5494	49610.64
5.55227	50377.56
5.55513	52142.73
5.55798	49919.35
5.56085	51371.57
5.56372	49101.29
5.56658	48518.64
5.56945	50945.55
5.57232	53182.02
5.57517	50879.97
5.57803	51658.56
5.5809	50010.29
5.58377	50668.02
5.58663	46279.3
5.5895	47472.97
5.59235	50472.37
5.59522	50340.34
5.59808	52053.79
5.60095	46009.82
5.60382	51481.29
5.60668	51612.66
5.60953	53214.2
5.6124	57370.27
5.61527	62536.24
5.61813	68968.52
5.621	80347.55
5.62387	91645.91
5.62672	87743.77
5.62958	97492.95
5.63245	98114.13
5.63532	93277.13
5.63818	96618.77
5.64105	95047.15
5.6439	94385.72
5.64677	96626.88
5.64963	90556.12
5.6525	91090.12
5.65537	81811.48
5.65823	80068.95
5.66108	80869.46
5.66395	78491.38
5.66682	80207.81
5.66968	78794.45
5.67255	73317.78
5.67542	71764.63
5.67827	75877.97
5.68113	74760.55
5.684	71964.05
5.68687	69252.27
5.68973	71348.7
5.6926	66140.22
5.69545	68459.21
5.69832	61931.68
5.70118	60945.97
5.70405	63271.72
5.70692	62910.13
5.70977	68289.84
5.71263	64369.4
5.7155	61441.19
5.71837	60392.82
5.72123	62530.45
5.7241	63346.28
5.72695	62945.89
5.72982	55883.18
5.73268	61131.63
5.73555	62924.16
5.73842	58646.38
5.74128	59783.02
5.74413	60876.8
5.747	57950.96
5.74987	57795.28
5.75273	57775.26
5.7556	56714.1
5.75847	56946.45
5.76132	57868.32
5.76418	55030.92
5.76705	56499.24
5.76992	54347.99
5.77278	56025.27
5.77565	56742.54
5.7785	53704.37
5.78137	58047.04
5.78423	56817.95
5.7871	60140.89
5.78997	60719.73
5.79283	60159.3
5.79568	56207.46
5.79855	54991.45
5.80142	56445.99
5.80428	59390.43
5.80715	53924.45
5.81002	55334.86
5.81287	55288.25
5.81573	53512.89
5.8186	51224.8
5.82147	55270.48
5.82433	52754.76
5.8272	54006.77
5.83005	56119.06
5.83292	57544.89
5.83578	55451.42
5.83865	53518.97
5.84152	48557.08
5.84437	54388.53
5.84723	53994.92
5.8501	55406.36
5.85297	52678.25
5.85583	51714.88
5.8587	55128.04
5.86155	55216.15
5.86442	55507.57
5.86728	48232.22
5.87015	55083.15
5.87302	63663.59
5.87588	49442.39
5.87873	50993.97
5.8816	48777.92
5.88447	48391.5
5.88733	51828.67
5.8902	51055.41
5.89307	51782.5
5.89592	51069.81
5.89878	50219.71
5.90165	56389.66
5.90452	52298.93
5.90738	63073.13
5.91025	50163.47
5.9131	59270.89
5.91597	55165.28
5.91883	56789.07
5.9217	48843.45
5.92457	48588.39
5.92743	50800.98
5.93028	48923.53
5.93315	50385.58
5.93602	55676.88
5.93888	52682.66
5.94175	51795.61
5.94462	56916.52
5.94747	51715.2
5.95033	53669.74
5.9532	54292.17
5.95607	58357.47
5.95893	57233.59
5.9618	52023.03
5.96465	49389.1
5.96752	63887.84
5.97038	54972.48
5.97325	52511.21
5.97612	52417.55
5.97897	55802.61
5.98183	51301.3
5.9847	53828.74
5.98757	47266.45
5.99043	48479.96
5.9933	52146.03
5.99615	55911
5.99902	54367.31
6.00188	57366.61
6.00475	64153.63
6.00762	68275.33
6.01048	63305.79
6.01333	71484.59
6.0162	70113.76
6.01907	75198.33
6.02193	79969.29
6.0248	76924.55
6.02767	71346.27
6.03052	71460.88
6.03338	70218.63
6.03625	70896.02
6.03912	69044.41
6.04198	68763.88
6.04485	65101.71
6.0477	64111.05
6.05057	63308.55
6.05343	59646.98
6.0563	61462.38
6.05917	57503.79
6.06203	64214.18
6.06488	58537.16
6.06775	60403.89
6.07062	61318.48
6.07348	58995.88
6.07635	60239.27
6.07922	56303.09
6.08207	55757.77
6.08493	57125.04
6.0878	60034.86
6.09067	56082.21
6.09353	53080.54
6.0964	52150.88
6.09925	56095.98
6.10212	53205.96
6.10498	58081.49
6.10785	53311.14
6.11072	55604.12
6.11357	53217.29
6.11643	54927.89
6.1193	53501.73
6.12217	53099.93
6.12503	57860.3
6.1279	51518.21
6.13075	51670.38
6.13362	52481.78
6.13648	54385.71
6.13935	54792.82
6.14222	57175.62
6.14508	56464.63
6.14793	48489.07
6.1508	55057.18
6.15367	51746.69
6.15653	52966.57
6.1594	52774.64
6.16227	54433.21
6.16512	46847.87
6.16798	52561.02
6.17085	57237.32
6.17372	52150.67
6.17658	52387.96
6.17945	52734.61
6.1823	55982.95
6.18517	54142.8
6.18803	50475.07
6.1909	53195.96
6.19377	49286.1
6.19663	52848.63
6.19948	57799.6
6.20235	57219.83
6.20522	61747.45
6.20808	80806.91
6.21095	93778.52
6.21382	122468.6
6.21667	157996
6.21953	186000.1
6.2224	209331.1
6.22527	237993.7
6.22813	235346.9
6.231	235958
6.23385	213182
6.23672	213097.7
6.23958	194188.7
6.24245	191242.5
6.24532	165651.5
6.24817	148831
6.25103	147195.7
6.2539	121228.2
6.25677	115768.8
6.25963	109524
6.2625	103711.7
6.26535	92662.34
6.26822	86755.49
6.27108	90120.38
6.27395	80747.21
6.27682	90484.23
6.27968	85342.36
6.28253	80156.46
6.2854	82709.67
6.28827	78849
6.29113	78978.78
6.294	77582.58
6.29687	78401.95
6.29972	83500.95
6.30258	83853.86
6.30545	77362.85
6.30832	73044.8
6.31118	77582.55
6.31405	80344.6
6.3169	78287.4
6.31977	75218.81
6.32263	70592.39
6.3255	77654.92
6.32837	96153.44
6.33123	114174.3
6.33408	133913.6
6.33695	166307.9
6.33982	186059.6
6.34268	203593.4
6.34555	214368.2
6.34842	209308.3
6.35127	211178.3
6.35413	216550.3
6.357	194207.2
6.35987	190918.4
6.36273	169637.9
6.3656	160105.3
6.36845	168439.4
6.37132	162022.4
6.37418	152641.6
6.37705	150466.8
6.37992	132007.8
6.38277	125922.6
6.38563	121935.6
6.3885	115161.5
6.39137	110209.3
6.39423	109848.4
6.3971	105370.8
6.39995	99001.61
6.40282	100221
6.40568	83765.25
6.40855	95679.12
6.41142	87906.3
6.41428	77337.88
6.41713	88488.95
6.42	77777.21
6.42287	74379.4
6.42573	82986.48
6.4286	77030.73
6.43147	77814.48
6.43432	70732.41
6.43718	71938.37
6.44005	69717.45
6.44292	68986.54
6.44578	71755.38
6.44865	73476.6
6.4515	67464.25
6.45437	61967.5
6.45723	66199.66
6.4601	66497.19
6.46297	70448.88
6.46583	67790.79
6.46868	70136.71
6.47155	70421.58
6.47442	71412.02
6.47728	69181.4
6.48015	67983.61
6.48302	75303.94
6.48587	83801.35
6.48873	79469.2
6.4916	85539.82
6.49447	106271.4
6.49733	114716.6
6.5002	115701.3
6.50305	130610.8
6.50592	125685.5
6.50878	145762.3
6.51165	147830.7
6.51452	133712
6.51738	133348.5
6.52023	137672.8
6.5231	123833
6.52597	125333.4
6.52883	115731.9
6.5317	122876.7
6.53455	114195.1
6.53742	99598.46
6.54028	98206.04
6.54315	97868.24
6.54602	92484.53
6.54888	92860.68
6.55173	91088.41
6.5546	86279.96
6.55747	85168.21
6.56033	82980.5
6.5632	78615.2
6.56607	85164.56
6.56892	77538.52
6.57178	73770.96
6.57465	78582.98
6.57752	79638.87
6.58038	87076.02
6.58325	71827.87
6.5861	68245.58
6.58897	67411.41
6.59183	66645.42
6.5947	70099.23
6.59757	67059.65
6.60043	71344.77
6.60328	72646.59
6.60615	65505.02
6.60902	71536.95
6.61188	72052.76
6.61475	74919.02
6.61762	76198.23
6.62047	70316.98
6.62333	66252.72
6.6262	66273.92
6.62907	67501.23
6.63193	67428.26
6.6348	64959.43
6.63765	59590.88
6.64052	62772.29
6.64338	56058.45
6.64625	59335.09
6.64912	57250.64
6.65198	72345.55
6.65483	63151.11
6.6577	61900.79
6.66057	57861.26
6.66343	60609.31
6.6663	57134.95
6.66915	57955.51
6.67202	58431.23
6.67488	54889.56
6.67775	57835.02
6.68062	57013.66
6.68348	61810.46
6.68633	58740.63
6.6892	56343.89
6.69207	56813.96
6.69493	57037.7
6.6978	55173.85
6.70067	56717.56
6.70352	58729.21
6.70638	56285.4
6.70925	53838.63
6.71212	54315.71
6.71498	53560.51
6.71785	59707.68
6.7207	61823.64
6.72357	54765.5
6.72643	60654.27
6.7293	55346.18
6.73217	59191.35
6.73503	55997.88
6.73788	50880.86
6.74075	54570.06
6.74362	49489.64
6.74648	54833.91
6.74935	51823.59
6.75222	51324.36
6.75507	46430.5
6.75793	54509
6.7608	48959.13
6.76367	49281.48
6.76653	49337.41
6.7694	50134.75
6.77225	55586.45
6.77512	52934.77
6.77798	51419.02
6.78085	56022.12
6.78372	50334.84
6.78658	52579.72
6.78943	55868.33
6.7923	54254.27
6.79517	52919.87
6.79803	53885.31
6.8009	48531.16
6.80375	54882.22
6.80662	57652.81
6.80948	56108.1
6.81235	57818.31
6.81522	57076.66
6.81808	52305.04
6.82093	50769.37
6.8238	55538.68
6.82667	55172.24
6.82953	48826.12
6.8324	55109.26
6.83527	52255.49
6.83812	50830.46
6.84098	45885.83
6.84385	49369.86
6.84672	48502.61
6.84958	47453.54
6.85245	50668.75
6.8553	51543.72
6.85817	51778.48
6.86103	57250.11
6.8639	55269.93
6.86677	56143.09
6.86963	58789.36
6.87248	50148.27
6.87535	54058.87
6.87822	54242.09
6.88108	59456.06
6.88395	54311.6
6.88682	60420.13
6.88967	57113.59
6.89253	56312.85
6.8954	52985.04
6.89827	56095.95
6.90113	55961.25
6.904	54521.84
6.90685	56465.79
6.90972	54511.78
6.91258	53166.89
6.91545	62217.88
6.91832	56583.32
6.92118	48804.85
6.92403	50118.77
6.9269	56719.98
6.92977	54635.21
6.93263	50767.39
6.9355	55523.65
6.93835	52377.27
6.94122	47994.74
6.94408	49878.74
6.94695	50435.1
6.94982	52667.91
6.95268	51095.99
6.95553	48921
6.9584	52524.24
6.96127	53476.42
6.96413	44608.36
6.967	51535.6
6.96987	48564.5
6.97272	57250.72
6.97558	50704.75
6.97845	49631.71
6.98132	49040
6.98418	47612.96
6.98705	50760.21
6.9899	46962.15
6.99277	47881.16
6.99563	50825.52
6.9985	52414.13
7.00137	54211.08
7.00423	52306.04
7.00708	53416.2
7.00995	53122.87
7.01282	50694.48
7.01568	46256.12
7.01855	46781.55
7.02142	47417.34
7.02427	52177.7
7.02713	50700.91
7.03	56269.07
7.03287	50624.7
7.03573	50205.04
7.0386	50756
7.04145	46797.99
7.04432	54362.43
7.04718	53555.03
7.05005	51869.61
7.05292	52457.64
7.05578	47029.77
7.05863	49454.73
7.0615	52215.36
7.06437	53529.34
7.06723	50376.59
7.0701	43632.61
7.07295	46781.79
7.07582	47902.69
7.07868	46818.28
7.08155	48106.64
7.08442	45437.34
7.08728	48035.94
7.09013	53516.38
7.093	48502.08
7.09587	48735.57
7.09873	49543.87
7.1016	50944.49
7.10447	56344.75
7.10732	55415.15
7.11018	52872.63
7.11305	49677.99
7.11592	55257.37
7.11878	59854.77
7.12165	52301.72
7.1245	51337.84
7.12737	56158.22
7.13023	54865.38
7.1331	54930.47
7.13597	48048.29
7.13883	52038.46
7.14168	53891.8
7.14455	58809.06
7.14742	64644.83
7.15028	84667.86
7.15315	111311.8
7.15602	159094.8
7.15887	211194.6
7.16173	257792.8
7.1646	275467.4
7.16747	279454
7.17033	285531.6
7.1732	245448
7.17605	235141.9
7.17892	211018.7
7.18178	192525.1
7.18465	161388.1
7.18752	143871.3
7.19038	144767.2
7.19323	118414
7.1961	116428.4
7.19897	113770.8
7.20183	112098.5
7.2047	106313.6
7.20757	102475.3
7.21042	108280
7.21328	109026.9
7.21615	115952.8
7.21902	130523
7.22188	142996.7
7.22473	147135.8
7.2276	151651.8
7.23047	137249.1
7.23333	129223.8
7.2362	134970.1
7.23907	120084.6
7.24192	115985.9
7.24478	118955.3
7.24765	101616.2
7.25052	97630.38
7.25338	91242
7.25625	84052.22
7.2591	81646.74
7.26197	79864.99
7.26483	75122.93
7.2677	80610.29
7.27057	72087.42
7.27343	70485.19
7.27628	68571.57
7.27915	66603.51
7.28202	67524.98
7.28488	63706.27
7.28775	65884.66
7.29062	64212.76
7.29347	63407.73
7.29633	60801.21
7.2992	65410.91
7.30207	61781.39
7.30493	63134.18
7.3078	55729.64
7.31065	54960.67
7.31352	55167.56
7.31638	57120.43
7.31925	61149.41
7.32212	54354.25
7.32498	55683.97
7.32783	51659.79
7.3307	50216.26
7.33357	53404.36
7.33643	60574.79
7.3393	51821.31
7.34217	63836.23
7.34502	74088.42
7.34788	81928.29
7.35075	98560.84
7.35362	109725.5
7.35648	114390.7
7.35933	126194
7.3622	133261
7.36507	137282.2
7.36793	127137
7.3708	117062
7.37367	125969.1
7.37652	111913.8
7.37938	108531.9
7.38225	111773.3
7.38512	106712.2
7.38798	103515.9
7.39085	101046.7
7.3937	102774.6
7.39657	103508.6
7.39943	109480.2
7.4023	114341.8
7.40517	107728.3
7.40803	104011.3
7.41088	113360
7.41375	123554.1
